#   1 FLUX_AUTO              Flux within a Kron-like elliptical aperture                [count]
#   2 FLUXERR_AUTO           RMS error for AUTO flux                                    [count]
#   3 XWIN_IMAGE             Windowed position estimate along x                         [pixel]
#   4 YWIN_IMAGE             Windowed position estimate along y                         [pixel]
#   5 ERRAWIN_IMAGE          RMS windowed pos error along major axis                    [pixel]
#   6 ERRBWIN_IMAGE          RMS windowed pos error along minor axis                    [pixel]
#   7 ERRTHETAWIN_IMAGE      Windowed error ellipse pos angle (CCW/x)                   [deg]
 2.50355e+07      4990.91   1899.9328    391.0023   0.00082   0.00082 -83.18
    187158.8     2218.988   2006.4130    321.7207   0.03084   0.03084  15.85
    765921.1     4059.444   2028.5447    374.8526   0.02556   0.02556 -89.98
     1432006     1715.269   1977.4477    399.6257   0.00136   0.00136 -87.46
    239036.5     4443.125   1735.4730    494.3152   0.13785   0.13785  -6.53
    15136.89     1737.346   1805.2619    458.3273   0.46975   0.46975  12.71
    40701.96     2735.864   1714.9571    498.3090   0.22713   0.22713   1.36
    31582.16     1619.265   2005.8168    495.0002   0.09382   0.09382  89.55
    3464.758     790.5797   1987.2514    507.2739   0.26873   0.26873  82.96
    8081.484     1246.964   1935.0451    515.4982   0.23680   0.23680   0.11
    66411.45      2124.22   1658.9964    542.5690   0.07626   0.07626  88.73
    11459.59     1522.213   1955.0929    524.1153   0.41661   0.41661  74.51
    10854.95       1423.9   2038.0774    532.1283   0.25849   0.25849 -80.15
    51262.95     1908.766   1950.7447    556.0750   0.06793   0.06793  -0.79
    35917.03     2120.629   1792.5368    560.1004   0.16824   0.16824  -1.70
    59643.74     2098.953   1579.9033    573.0536   0.10697   0.10697  28.32
    15039.46      1767.79   1718.3625    552.9456   0.26837   0.26837  -0.63
    21724.96     1801.953   1695.7643    583.5837   0.16647   0.16647   9.18
    5523.734     1033.006   1781.8241    574.2368   0.29046   0.29046  55.73
    8848.344     1429.243   1704.0061    580.2462   0.28902   0.28902   4.52
    18755.11     1271.179   1620.4603    586.4310   0.14117   0.14117 -59.76
    8564.891     1329.789   1812.1468    587.9428   0.31973   0.31973  13.32
    7096.867     1151.631   1722.6481    599.9656   0.32429   0.32429 -84.75
    21811.46     1413.154   1739.3799    611.6945   0.18327   0.18327 -13.18
    33832.87     2120.629   1955.7259    612.2409   0.13682   0.13682 -84.71
    17627.67     1856.128   1571.9797    608.8139   0.24046   0.24046  -3.51
    4304.395     1069.262   1762.6043    604.8105   0.35062   0.35062  78.25
    17275.21     1590.771   1737.5898    618.4189   0.23338   0.23338 -69.99
    350831.3     2191.336   1600.6578    670.2847   0.00911   0.00911 -71.97
    67816.56     1271.179   1838.6638    628.1615   0.02477   0.02477  22.64
    11130.05     1651.887   1550.7527    620.7849   0.31230   0.31230  57.65
     1412145     1719.707   1608.3537    654.7261   0.00146   0.00146  14.75
    17185.88     1402.325   1805.0760    659.3291   0.12865   0.12865  87.82
    22638.18      1822.98   2026.5391    634.3842   0.21107   0.21107  -0.12
    7804.789     1177.808   1676.4408    639.5962   0.36690   0.36690 -41.05
    64430.88     2163.331   1894.9058    687.9921   0.11195   0.11195  88.43
    23435.33     2062.319   1586.8558    664.8675   0.21550   0.21550  45.86
    329021.4     3408.248   1927.8834    717.6882   0.03754   0.03754  -5.45
    54893.85     1701.886   1799.1523    695.6056   0.07242   0.07242  52.58
    43439.39     1801.953   1678.2507    696.8576   0.06822   0.06822  77.88
     8191.75      676.261   2027.7336    684.7690   0.03872   0.03804   1.87
    102084.2     2394.129   1902.4641    718.5641   0.05700   0.05700  27.11
    5786.973     740.8068   2045.3605    701.4301   0.22203   0.22123 -90.00
    50666.88     1460.891   1651.6418    713.1637   0.04157   0.04157   2.87
    13847.28      1306.66   1453.5665    723.5312   0.14365   0.14365 -39.16
    30699.04     2286.656   1487.6620    734.1344   0.19644   0.19644  -9.43
    13339.65     1732.953   1568.4388    728.7145   0.27195   0.27195   6.11
    23697.39     2548.347   1867.2295    739.7017   0.32799   0.32799 -84.99
    23381.67     1512.166   1535.3221    734.5493   0.10692   0.10692   1.29
    6428.219     1203.415   1725.6732    728.9104   0.36038   0.36038  66.66
    43934.88     2273.283   1903.8640    747.6904   0.11889   0.11889 -84.63
    7771.539     1164.793   1723.0585    758.9539   0.29610   0.29610  51.78
    24252.47     1900.763   1934.7614    762.5205   0.16754   0.16754 -86.82
    5846.371     818.9927   1962.9198    756.6588   0.11672   0.08236  74.92
    111339.3     1888.694   1808.0759    789.1083   0.03151   0.03151  77.49
    11434.88     1512.166   1359.3492    763.7158   0.25799   0.25799  -6.51
    148780.7     3034.395   1589.0050    814.9251   0.07625   0.07625  -6.03
       28911     2425.757   1533.4738    789.8743   0.26494   0.26494 -88.32
     8324.84     1253.061   1871.6373    777.7497   0.23855   0.23855  -9.84
    15656.88     1780.678   1822.8034    786.7347   0.23717   0.23717 -29.69
    74271.44     2607.481   1765.6639    797.6266   0.13137   0.13137  22.87
    6782.602      1306.66   1445.8474    788.7061   0.29251   0.29251 -17.52
    180898.2      2374.95   1737.5088    835.9808   0.02475   0.02475 -74.36
    8120.508     1537.162   1393.8073    791.3116   0.35125   0.35125  49.78
     55320.9     2991.388   1427.0141    819.7639   0.19972   0.19972 -76.76
    11193.47     1184.261   1445.4713    799.5749   0.24331   0.24331  77.95
    24792.83      1439.87   1687.2088    805.1395   0.13210   0.13210 -36.19
    18030.78      1111.21   1508.2706    805.9091   0.10598   0.10598  81.80
    13407.83     1413.154   1986.7023    804.3533   0.25430   0.25430  76.32
    19562.19     2381.361   1410.5895    813.2542   0.34902   0.34902   8.53
    5108.523     1069.262   1394.8585    804.4606   0.27209   0.27209 -85.86
    54449.16     2963.227   2042.6216    827.5370   0.34401   0.30527 -90.00
     4075.32     898.8591   1342.4714    811.0713   0.33704   0.33704  86.94
    40232.26     2145.642   1433.6391    829.4123   0.10078   0.10077 -11.58
    15212.96     1839.629   1662.1322    828.6132   0.35767   0.35767  -3.99
    68483.02     1329.789   1574.8468    839.5566   0.02719   0.02719   1.80
    16159.49     1517.198   1648.7370    829.8637   0.13870   0.13870  87.23
    33541.98     2036.283   1420.7075    838.4235   0.11183   0.11183  -0.86
     9447.34     1413.154   1811.6764    825.0179   0.44756   0.44756 -89.71
    35993.55      2058.62   1492.1270    841.9755   0.12779   0.12779 -65.22
    46182.04     2145.642   1745.4810    848.4473   0.07849   0.07849  26.03
    12405.41      676.261   1315.2779    833.1587   0.02051   0.01912   2.12
    24437.48      1767.79   1672.3123    846.2877   0.24817   0.24817 -69.62
    4951.395     940.3027   1545.2214    836.2715   0.33525   0.33525 -50.29
      192597     2592.824   1703.0849    897.6396   0.03220   0.03220 -85.04
    65824.55     1374.879   1501.8654    870.7221   0.03148   0.03148 -76.71
    10695.41     1418.537   1967.9140    862.4491   0.36648   0.36648 -89.81
     3363599     1884.654   1446.5843    906.2764   0.00079   0.00079  -8.72
    9004.547     1537.162   1895.7467    869.4765   0.37379   0.37379 -88.65
     5842.66      1190.68   1956.1556    868.0251   0.30349   0.30349 -81.10
    36304.84     2542.357   1460.7769    892.9747   0.22018   0.22018 -22.03
    19311.92     1688.397   1624.7168    884.1592   0.21997   0.21997  -8.03
    47685.73      2283.32   1194.6638    905.8183   0.15505   0.15505  84.17
    23009.77     2032.536   1634.2566    900.1981   0.19002   0.19002 -48.27
    10863.77     1542.112   1445.5300    884.5190   0.24656   0.24656  38.35
    31300.92     2323.033   1232.9018    911.2438   0.21749   0.21749 -60.36
     8622.43     1312.481   1574.4969    890.4618   0.28618   0.28618 -10.75
    16608.82     1507.117   1614.3231    904.7213   0.13998   0.13998 -38.41
    18146.21     1896.748   1543.7522    909.7497   0.27828   0.27828 -23.67
    10261.68     923.9484   1659.0866    908.3999   0.20841   0.20841  82.91
     28372.5     1566.631   1995.4926    921.6851   0.06762   0.06762 -89.80
    6942.453     923.9484   1850.9690    912.6550   0.29409   0.29409  89.94
    13837.62     1363.746   1935.1675    941.1367   0.14303   0.14303 -47.13
    13320.16     1240.836   1781.1673    945.5784   0.16595   0.16595 -78.68
    11488.61     780.8789   1142.5996    938.1354   0.11341   0.11341  18.39
    41663.47     1571.489   1665.3300    962.8645   0.08743   0.08743 -87.75
    59929.41     2098.953   1596.4760    968.2509   0.08046   0.08046  -2.23
    5795.418     1184.261   1837.3360    955.4146   0.27861   0.27861 -68.85
    9661.844     1374.879   1956.3956    963.2628   0.26100   0.26100 -81.09
     2946336     11435.94    991.1955   1130.3135   0.06480   0.06480  27.84
    17442.51     1732.953   1932.3607    978.5198   0.21800   0.21800   4.28
      5669.5     890.3389   2045.3673    967.7587   0.27112   0.26867  90.00
    5234.105     846.4526   1370.1149    971.5638   0.29881   0.29881  86.27
    9939.371      1439.87   1137.1943    968.6672   0.38572   0.38572   5.05
    9763.879     1466.099   1842.9264    976.8595   0.32295   0.32295  11.13
    69067.55     1329.789   1752.6427    992.4310   0.02540   0.02540  62.61
    44728.22     1537.162   1651.9680    994.7943   0.07658   0.07658  88.93
    11041.71     1265.168   1935.7446    986.3728   0.20287   0.20287 -77.59
    108560.6     2303.262   1594.8673   1011.5262   0.04292   0.04292  -0.37
    80694.27     2400.488   1168.3063   1012.9068   0.07319   0.07319   6.68
     4279.07     790.5797   1951.0835    996.2322   0.25848   0.25848  87.97
    18536.06     1789.218   1918.7058   1006.5612   0.19110   0.19110 -86.87
    13798.89     1674.799   1227.0547   1003.8918   0.22403   0.22403  24.31
     18105.3     2036.283   1702.5217   1002.5062   0.44014   0.44014   0.20
    16593.48     1164.793   1691.9677   1011.8430   0.12026   0.12026 -56.12
    73690.82     1987.026   1938.1576   1051.4923   0.09405   0.09405 -89.56
       20090     1402.325   1864.2945   1019.3148   0.12982   0.12982  54.67
    22637.77     2208.659   1241.1892   1027.9651   0.19778   0.19778  88.87
     4930.18     907.2993   1644.6756   1016.4199   0.22107   0.22107 -84.06
    8212.516     1455.664   1220.6054   1025.4898   0.39835   0.39835 -60.92
    27114.11     1502.051   1598.9918   1035.1160   0.08758   0.08758  67.62
    9024.793     1512.166   1312.3539   1033.1484   0.35685   0.35685 -85.46
    12687.34     1595.556   1765.4770   1032.9892   0.29603   0.29603 -88.91
    3495.184     493.8712   2045.3076   1035.9562   0.26819   0.26811 -89.98
    7761.004     1294.941   1214.2860   1037.0245   0.36802   0.36802 -84.08
    12587.42     1460.891   1182.8790   1046.6111   0.23819   0.23819   4.17
    114610.5     2963.227   1895.7889   1069.6895   0.06987   0.06987 -73.99
    10306.12     1576.331   1196.8737   1053.8703   0.39563   0.39563 -71.96
    11835.61     1532.195   1890.8165   1056.5282   0.26782   0.26782   0.61
    10173.43      1190.68   1915.9645   1064.4949   0.25841   0.25841  89.62
    89691.47     2316.461   1971.9345   1082.5963   0.05450   0.05450 -85.62
    11463.41     1527.212   1796.9066   1068.2426   0.18345   0.18345 -80.51
    440473.3     5010.724   1968.4793   1122.8707   0.04771   0.04771  -1.40
    6984.707     1184.261   1812.2417   1084.5304   0.26124   0.26124  87.71
    36155.01     1975.485   1264.7550   1114.4985   0.14188   0.14188  86.17
    11541.16     972.1864   1838.7321   1074.7857   0.15910   0.15910  53.53
    7573.023     1460.891   1462.4485   1069.4680   0.28245   0.28245  80.34
    12876.29     1581.159   1883.5380   1068.7759   0.40997   0.40997  -0.11
    38792.87     1445.154   2039.2200   1087.3585   0.07697   0.07697   3.40
    11588.33     1481.614   1784.4993   1075.9795   0.25607   0.25607 -89.17
    58228.27     2358.849   1023.8786   1101.3844   0.10729   0.10729   1.93
    70079.39      1439.87   1998.2841   1094.7153   0.02522   0.02522 -65.63
    62505.77     1294.941   1356.6653   1093.4176   0.02871   0.02871  -1.69
    122587.5     5095.197   1966.5366   1108.1381   0.21228   0.21228  -3.06
    11616.95     1455.664   1056.8113   1081.1681   0.36622   0.36622  69.49
    5917.895     1018.142   1220.8963   1083.1779   0.33715   0.33715  61.22
    15203.48     1715.269   1983.8067   1088.5133   0.32585   0.32585  87.62
    11022.35     1277.161   1692.4899   1090.8908   0.20233   0.20233  89.88
    8319.164     987.7424   1107.9962   1094.4152   0.08800   0.08797 -90.00
    9572.465     1413.154   1413.4555   1100.2001   0.23022   0.23022   1.17
    22530.55     2106.203   1573.4849   1105.2986   0.24835   0.24835  87.64
    14001.02     1637.985   1917.0400   1105.4595   0.32847   0.32847 -89.65
    120547.8      2299.95   1966.1489   1116.4943   0.04189   0.04189  88.80
    10203.68     1289.042   1098.9911   1105.8988   0.24345   0.24345  50.85
    19998.27     1502.051   1871.5349   1121.1767   0.11348   0.11348  -5.71
    5508.648      1104.33   1201.1293   1110.4790   0.30844   0.30844 -78.88
     6610.02      1104.33   1319.8805   1117.6448   0.27522   0.27522   7.32
    243907.2     3041.922   1488.8538   1159.7009   0.03935   0.03935  -4.97
    11394.05     1047.659   1254.1303   1126.5173   0.19641   0.19641   1.84
    150526.5     2066.011   1125.2959   1158.6418   0.03238   0.03238  78.78
    28265.68     1595.556   1849.1967   1140.7855   0.08951   0.08951 -54.04
    6751.426     1240.836   1648.7845   1133.2164   0.37327   0.37327 -44.31
    73136.22     1754.807   1911.2115   1156.8231   0.04039   0.04039  34.68
    22298.71     1979.339   1712.0148   1153.5817   0.17753   0.17753 -14.58
    9478.785     898.8591   1587.3325   1146.6815   0.22558   0.22558 -46.32
    100123.6     2685.247   1814.5144   1174.8723   0.05946   0.05946  -1.64
    110448.8     2180.876   1875.5960   1171.3713   0.03886   0.03886 -26.33
    97527.04     2156.272   2020.1526   1180.7657   0.04722   0.04722  -2.04
    5117.664     828.2471   1861.0550   1158.5269   0.21136   0.21136 -89.36
     39797.1     1637.985   1354.1294   1174.2807   0.08596   0.08596  85.14
    22866.62     1600.326   2015.9600   1169.1063   0.11230   0.11230  14.21
    22648.14     771.0562   1463.9650   1165.0676   0.00766   0.00751 -82.09
    6151.844     873.0492   1908.2217   1163.9819   0.22107   0.22107  85.88
    74474.41     1784.953   1752.7148   1190.8847   0.04983   0.04983  87.66
    12301.09     1581.159   1837.5025   1169.5128   0.29590   0.29590 -16.68
    30775.23     1318.275   1968.3644   1177.3542   0.07795   0.07795 -52.11
     5916.07     1040.358   1979.4800   1169.2574   0.26362   0.26362 -10.67
    219398.5      2653.84   1986.8960   1202.6674   0.04597   0.04597 -84.09
    18336.05     1571.489   1896.3642   1185.4878   0.19545   0.19545  11.20
    715823.9     3331.343   1852.0590   1259.7220   0.00991   0.00991 -86.87
    22186.82     1551.966   1553.3151   1186.7708   0.10361   0.10361 -27.15
    11069.65     1527.212   1642.9900   1183.5756   0.33830   0.33830  -0.72
    4028.414     800.1628   1936.9543   1178.4444   0.29935   0.29935 -89.20
    69300.11     3317.587   1801.5921   1235.3065   0.17323   0.17323 -16.69
    12384.41     1637.985   1602.8976   1201.5720   0.22349   0.22349  88.65
     2272766     1706.359   1629.1311   1240.4648   0.00088   0.00088  89.74
    8363.906     1300.814   1895.3358   1200.9437   0.24487   0.24487   7.80
    6779.844     881.7365   1866.4522   1200.6772   0.19729   0.19729  87.78
    7452.992     1234.678   1440.4117   1199.6977   0.34992   0.34992  25.26
    5022.527     940.3027   1281.2470   1205.1919   0.31896   0.31896 -32.19
    71863.53     2051.201   2011.0690   1237.5517   0.08008   0.08008  89.83
    17172.34     1715.269   1054.1738   1223.6273   0.18187   0.18187  -5.12
    12733.23      1306.66   1992.7573   1219.7807   0.19308   0.19308 -50.35
    17444.57     1674.799   2003.9744   1233.9891   0.20498   0.20498  63.05
    9058.332     1445.154   1361.6469   1236.8469   0.31918   0.31918  89.18
     1282411     1517.198   1989.5956   1272.4793   0.00114   0.00114 -89.07
    22813.69     1369.324   1764.7290   1253.2052   0.09082   0.09082  11.52
    114776.8     2598.697   1555.6595   1274.7520   0.05084   0.05084 -33.96
    3982.531     846.4526   1972.2043   1246.8985   0.28047   0.28047  -3.94
    3802.449     538.1837   1327.9378   1252.0211   0.03195   0.03112   2.02
    497831.4     1789.218   1372.2558   1289.9660   0.00452   0.00452 -78.48
    8514.191     1380.412   1667.2032   1259.1679   0.39222   0.39222 -81.67
    90352.52     2326.312   1475.9992   1284.7272   0.05329   0.05329   4.39
    6698.824     1203.415   1809.2398   1265.3787   0.25906   0.25906 -85.53
    96508.41     1868.407   1352.8639   1290.9331   0.03872   0.03872 -89.39
    30597.84     1814.599   1974.4309   1285.4342   0.18180   0.18180 -47.54
    7486.555     1216.017   1610.4641   1278.0235   0.19960   0.19960   0.70
     4494.23     864.2746   1662.7384   1270.6635   0.27899   0.27899  86.88
    47266.05     1750.458   1298.8539   1297.0107   0.06662   0.06662 -82.93
    9014.496     1003.057   1731.2092   1281.4317   0.16473   0.16473  77.25
    180027.7     2807.365   1193.2605   1334.2435   0.04348   0.04348 -37.77
    33405.09     2225.847   1547.0980   1297.9821   0.16042   0.16042 -61.72
    13422.71     1892.725   1206.5053   1296.8356   0.39979   0.39979  89.27
    6607.043     604.8662   1110.9706   1291.0752   0.02293   0.02230 -83.40
    9211.613     881.7365   1044.1146   1296.0750   0.16014   0.16014  -9.48
     25860.1     2173.875   2030.2196   1306.9202   0.23564   0.23564 -41.76
    13067.67     1402.325   1702.8975   1310.1509   0.24134   0.24134  45.75
    8669.176     809.6325   1962.3666   1306.9853   0.10616   0.10616  -0.12
    67603.15     2084.376   1369.6489   1320.0903   0.08653   0.08653   1.21
    13527.18     1561.758   1566.5354   1311.5924   0.16938   0.16938  28.19
    23724.52     2276.634   1555.6553   1323.8029   0.28619   0.28619  86.76
    8740.543     1445.154   1621.0567   1312.8712   0.32630   0.32630  87.20
     65939.4     2316.461   1428.3636   1333.6533   0.07830   0.07830  35.58
     74835.8     2232.686   1633.6745   1335.3387   0.11590   0.11590 -73.87
    18315.81     2198.282   1572.5488   1326.1836   0.31212   0.31212  84.91
    7054.195     1246.964   1066.6293   1317.0895   0.32556   0.32556  87.12
    22608.17     1522.213   1577.1759   1331.9122   0.09972   0.09972  -2.80
    108966.3     2163.331   1533.8062   1360.5212   0.05644   0.05644 -85.14
    22797.01     2002.311   1183.4571   1339.1965   0.26298   0.26298 -87.65
    81036.53     2006.114   1777.1791   1362.8776   0.06455   0.06455 -76.82
    85668.91     1517.198   1054.2944   1352.4548   0.02537   0.02537  67.84
    3726.691     761.1066   1712.1833   1338.6092   0.22056   0.22055 -89.10
    9966.992     915.6617   1574.3801   1349.6346   0.16964   0.16964 -66.16
     70019.3     1512.166   1634.5157   1363.9410   0.03863   0.03863   0.42
    11928.06     1259.129   1254.3222   1352.7447   0.22624   0.22624 -22.63
    5564.609     641.5575   1404.1377   1351.1619   0.04407   0.04349  80.86
    7353.008     837.3994   1416.7787   1352.0987   0.20869   0.20869  -2.46
    21708.89     1806.178   1200.6747   1360.1709   0.15096   0.15096 -76.87
    248723.9      2009.91   1104.6864   1389.6600   0.01456   0.01456  47.55
    10428.02     1369.324   1661.5604   1357.3024   0.20162   0.20162   5.60
    28423.57     1294.941   1588.7891   1369.3236   0.08152   0.08152   7.28
